40	27.6
41	28.3
42	29.0
43	29.7
44	30.4
45	31.1
46	31.8
47	32.5
48	33.2
49	33.9
50	34.6
51	35.3
52	35.9
53	36.6
54	37.2
55	37.9
56	38.5
57	39.2
58	39.8
59	40.5
60	41.1
61	41.5
62	42.0
63	42.4
64	42.8
65	43.2
66	43.6
67	44.1
68	44.5
69	44.9
70	45.3
71	45.6
72	45.9
73	46.2
74	46.4
75	46.7
76	47.0
77	47.3
78	47.5
79	47.8
80	48.1

Frequency	Field Strength
[MHz]		[dBmuV/m]

Reference Radiation Source
datasheet from manufacture
measured steps 10 MHz (1MHz steps interpolate)
Field Strength @ 10 m
